Wavelength/nm	Absorbance	Reference	Sample	Pr. Code:	000	Const1:	 0	Const2:	 0
180.23	 .477	3	1
180.23	 .477	3	1
180.23	 .477	3	1
180.99	 0	0	-1
181.75	 0	0	0
182.51	 0	1	-2
183.27	-.1	1	2
184.03	 .477	3	1
184.80	 0	-1	-1
185.56	 0	-2	-2
186.32	 0	-2	-2
187.08	-.1	1	3
187.84	 .301	4	2
188.60	 .301	2	1
189.36	 0	1	1
190.12	 0	-1	1
190.87	 0	1	1
191.63	-.1	2	4
192.39	 0	0	0
193.15	 0	1	-1
193.91	-.1	2	3
194.67	 0	3	3
195.43	 0	2	-1
196.19	 0	2	2
196.95	 0	1	0
197.71	-.1	1	3
198.46	-.1	3	5
199.22	 0	0	2
199.98	 .301	6	3
200.74	 0	4	0
201.50	 0	1	-1
202.26	 .477	3	1
203.01	 0	0	0
203.77	 0	0	2
204.53	-.1	2	3
205.29	 0	1	1
206.04	 0	0	3
206.80	 0	4	0
207.56	 0	0	1
208.32	 0	0	0
209.07	 0	2	-2
209.83	 0	3	3
210.59	 .301	2	1
211.34	 .176	3	2
212.10	 0	1	0
212.86	 0	3	3
213.61	 .301	2	1
214.37	 0	1	1
215.12	-.1	1	2
215.88	 0	0	-1
216.64	 0	0	-1
217.39	-.1	3	5
218.15	 0	-1	0
218.90	 0	-2	1
219.66	 0	-1	-1
220.41	-.1	2	4
221.17	-.1	1	2
221.92	 0	0	0
222.68	-.1	1	2
223.43	 0	3	0
224.19	-.1	2	3
224.94	-.1	1	3
225.70	 0	1	1
226.45	 0	2	2
227.21	 0	0	1
227.96	 0	3	3
228.72	-.1	2	3
229.47	 0	-2	1
230.22	-.1	1	2
230.98	 0	1	-1
231.73	 0	3	3
232.48	 .477	3	1
233.24	 0	1	-1
233.99	 .301	-2	-1
234.74	 0	1	-1
235.50	-.1	1	2
236.25	 .301	2	1
237.00	 0	0	-2
237.76	 0	2	2
238.51	 0	2	2
239.26	 .301	4	2
240.01	 .699	5	1
240.77	 0	0	1
241.52	 .301	2	1
242.27	 0	0	2
243.02	-.1	1	2
243.77	 0	3	3
244.53	 .301	2	1
245.28	 .477	3	1
246.03	-.1	2	3
246.78	 0	2	2
247.53	 0	0	0
248.28	-.1	2	3
249.03	 0	-2	2
249.78	-.1	2	5
250.53	 0	2	2
251.29	 .301	-2	-1
252.04	 .301	4	2
252.79	 0	0	1
253.54	-.1	3	4
254.29	 .176	3	2
255.04	-.1	1	4
255.79	 0	3	3
256.54	 .176	6	4
257.29	 0	1	1
258.04	 0	1	0
258.79	 .301	2	1
259.53	-.1	1	3
260.28	-.1	3	4
261.03	 0	2	2
261.78	 0	-1	3
262.53	 0	1	1
263.28	 0	4	4
264.03	 .301	2	1
264.78	 0	2	0
265.52	 0	3	3
266.27	-.1	2	3
267.02	 0	0	2
267.77	 0	2	-1
268.52	-.1	1	5
269.27	 0	-1	1
270.01	 0	2	2
270.76	 0	3	3
271.51	-.097	4	5
272.26	 0	1	-2
273.00	 0	-2	1
273.75	-.097	4	5
274.50	 0	0	2
275.24	-.1	2	3
275.99	 .222	5	3
276.74	-.1	3	4
277.48	-.1	3	5
278.23	-.1	2	3
278.98	-.1	3	4
279.72	 .176	3	2
280.47	-.1	2	3
281.21	-.1	2	3
281.96	 .602	4	1
282.70	 .222	5	3
283.45	-.1	2	3
284.20	 0	3	3
284.94	 0	3	3
285.69	 0	6	6
286.43	 .125	8	6
287.18	 0	7	7
287.92	 0	6	6
288.66	-.087	9	11
289.41	-.067	12	14
290.15	-.058	14	16
290.90	-.084	14	17
291.64	-.03	14	15
292.39	-.079	15	18
293.13	-.022	19	20
293.87	-.1	19	25
294.62	-.1	23	30
295.36	-.065	31	36
296.10	-.1	35	45
296.85	-.1	39	53
297.59	-.1	47	61
298.33	-.1	48	68
299.08	-.1	53	77
299.82	-.1	59	80
300.56	-.1	62	89
301.30	-.1	68	96
302.05	-.1	67	94
302.79	-.1	71	105
303.53	-.1	77	112
304.27	-.1	78	117
305.01	-.1	78	118
305.76	-.1	81	123
306.50	-.1	89	132
307.24	-.1	89	135
307.98	-.1	94	139
308.72	-.1	97	144
309.46	-.1	97	148
310.20	-.1	101	156
310.94	-.1	104	157
311.68	-.1	107	162
312.43	-.1	107	167
313.17	-.1	120	176
313.91	-.1	117	179
314.65	-.1	122	182
315.39	-.1	126	189
316.13	-.1	131	197
316.87	-.1	135	203
317.61	-.1	132	206
318.35	-.1	135	203
319.08	-.1	139	211
319.82	-.1	149	229
320.56	-.1	158	241
321.30	-.1	169	255
322.04	-.1	177	269
322.78	-.1	189	290
323.52	-.1	194	291
324.26	-.1	200	304
324.99	-.1	194	293
325.73	-.1	201	304
326.47	-.1	205	306
327.21	-.1	206	312
327.95	-.1	214	323
328.68	-.1	215	325
329.42	-.1	227	335
330.16	-.1	227	339
330.90	-.1	235	348
331.63	-.1	235	353
332.37	-.1	242	360
333.11	-.1	243	365
333.84	-.1	249	372
334.58	-.1	251	373
335.32	-.1	251	382
336.05	-.1	255	386
336.79	-.1	260	389
337.53	-.1	258	390
338.26	-.1	260	396
339.00	-.1	265	393
339.73	-.1	264	397
340.47	-.1	264	401
341.21	-.1	269	402
341.94	-.1	268	400
342.68	-.1	268	405
343.41	-.1	274	411
344.15	-.1	273	407
344.88	-.1	278	411
345.62	-.1	273	412
346.35	-.1	280	418
347.08	-.1	282	418
347.82	-.1	281	421
348.55	-.1	283	423
349.29	-.1	279	413
350.02	-.1	284	422
350.75	-.1	280	411
351.49	-.1	283	414
352.22	-.1	282	411
352.95	-.1	280	406
353.69	-.1	274	401
354.42	-.1	274	402
355.15	-.1	271	398
355.89	-.1	278	404
356.62	-.1	278	397
357.35	-.1	276	397
358.08	-.1	282	402
358.82	-.1	280	401
359.55	-.1	284	403
360.28	-.1	281	404
361.01	-.1	282	400
361.74	-.1	285	401
362.47	-.1	284	402
363.21	-.1	286	401
363.94	-.1	286	395
364.67	-.1	286	398
365.40	-.1	284	395
366.13	-.1	283	390
366.86	-.1	282	386
367.59	-.1	287	389
368.32	-.1	285	380
369.05	-.1	273	371
369.78	-.1	274	372
370.51	-.1	264	357
371.24	-.1	265	356
371.97	-.1	265	347
372.70	-.1	261	347
373.43	-.1	264	344
374.16	-.1	263	343
374.89	-.1	265	346
375.62	-.1	278	359
376.35	-.1	278	358
377.08	-.1	282	357
377.80	-.1	281	360
378.53	-.096	290	362
379.26	-.098	308	386
379.99	-.1	300	378
380.72	-.099	298	374
381.44	-.087	294	359
382.17	-.084	287	348
382.90	-.079	291	349
383.63	-.08	275	331
384.35	-.081	273	329
385.08	-.077	262	313
385.81	-.08	257	309
386.54	-.067	256	299
387.26	-.059	260	298
387.99	-.063	264	305
388.72	-.053	269	304
389.44	-.054	258	292
390.17	-.049	252	282
390.89	-.047	254	283
391.62	-.043	252	278
392.35	-.039	263	288
393.07	-.031	301	323
393.80	-.03	281	301
394.52	-.034	261	282
395.25	-.021	265	278
395.97	-.019	264	276
396.70	-.018	264	275
397.42	-.014	274	283
398.15	-.007	292	297
398.87	-.004	325	328
399.60	 .007	305	300
400.32	 .006	293	289
401.04	 .011	285	278
401.77	 .018	278	267
402.49	 .019	275	263
403.21	 .02	273	261
403.94	 .025	269	254
404.66	 .027	268	252
405.38	 .034	275	254
406.11	 .039	277	253
406.83	 .05	256	228
407.55	 .047	255	229
408.28	 .052	246	218
409.00	 .048	259	232
409.72	 .067	252	216
410.44	 .056	246	216
411.16	 .061	244	212
411.89	 .074	243	205
412.61	 .071	251	213
413.33	 .073	246	208
414.05	 .09	256	208
414.77	 .079	247	206
415.49	 .092	242	196
416.21	 .095	249	200
416.93	 .086	244	200
417.66	 .098	248	198
418.38	 .104	253	199
419.10	 .108	259	202
419.82	 .114	260	200
420.54	 .113	262	202
421.26	 .115	279	214
421.98	 .116	302	231
422.70	 .125	300	225
423.42	 .123	279	210
424.13	 .129	269	200
424.85	 .137	277	202
425.57	 .136	279	204
426.29	 .147	265	189
427.01	 .153	259	182
427.73	 .149	269	191
428.45	 .15	263	186
429.17	 .151	273	193
429.88	 .163	303	208
430.60	 .161	313	216
431.32	 .17	312	211
432.04	 .168	277	188
432.75	 .173	265	178
433.47	 .169	251	170
434.19	 .174	248	166
434.91	 .175	247	165
435.62	 .183	247	162
436.34	 .19	262	169
437.06	 .187	274	178
437.77	 .188	253	164
438.49	 .198	270	171
439.21	 .195	271	173
439.92	 .193	256	164
440.64	 .192	246	158
441.35	 .201	259	163
442.07	 .211	265	163
442.78	 .199	256	162
443.50	 .209	275	170
444.21	 .203	279	175
444.93	 .211	273	168
445.64	 .213	271	166
446.36	 .207	272	169
447.07	 .215	289	176
447.79	 .219	280	169
448.50	 .218	269	163
449.22	 .215	271	165
449.93	 .224	278	166
450.64	 .215	271	165
451.36	 .221	273	164
452.07	 .218	274	166
452.78	 .218	256	155
453.50	 .228	245	145
454.21	 .221	243	146
454.92	 .222	245	147
455.63	 .222	235	141
456.35	 .235	239	139
457.06	 .216	250	152
457.77	 .22	247	149
458.48	 .226	237	141
459.19	 .23	229	135
459.91	 .235	242	141
460.62	 .224	241	144
461.33	 .23	258	152
462.04	 .231	235	138
462.75	 .227	219	130
463.46	 .225	220	131
464.17	 .213	222	136
464.88	 .218	233	141
465.59	 .224	261	156
466.30	 .222	277	166
467.01	 .226	239	142
467.72	 .228	230	136
468.43	 .226	249	148
469.14	 .22	249	150
469.85	 .22	234	141
470.56	 .224	236	141
471.27	 .221	231	139
471.98	 .218	241	146
472.69	 .209	241	149
473.40	 .217	262	159
474.11	 .211	268	165
474.82	 .209	285	176
475.52	 .213	302	185
476.23	 .206	299	186
476.94	 .204	302	189
477.65	 .208	300	186
478.35	 .208	305	189
479.06	 .202	306	192
479.77	 .207	317	197
480.48	 .199	335	212
481.18	 .197	329	209
481.89	 .202	357	224
482.60	 .199	353	223
483.30	 .203	346	217
484.01	 .193	354	227
484.72	 .196	388	247
485.42	 .194	388	248
486.13	 .195	490	313
486.83	 .193	420	269
487.54	 .186	437	285
488.24	 .178	375	249
488.95	 .181	364	240
489.65	 .18	363	240
490.36	 .177	355	236
491.06	 .172	351	236
491.77	 .172	343	231
492.47	 .169	347	235
493.18	 .163	348	239
493.88	 .162	354	244
494.58	 .166	366	250
495.29	 .161	352	243
495.99	 .158	374	260
496.70	 .159	418	290
497.40	 .152	370	261
498.10	 .149	344	244
498.80	 .15	342	242
499.51	 .143	345	248
500.21	 .143	336	242
500.91	 .139	332	241
501.61	 .138	364	265
502.32	 .134	361	265
503.02	 .136	356	260
503.72	 .13	367	272
504.42	 .128	361	269
505.12	 .129	359	267
505.82	 .117	343	262
506.53	 .121	334	253
507.23	 .121	332	251
507.93	 .113	335	258
508.63	 .111	327	253
509.33	 .112	317	245
510.03	 .103	317	250
510.73	 .111	327	253
511.43	 .098	321	256
512.13	 .094	309	249
512.83	 .097	315	252
513.53	 .088	306	250
514.23	 .092	305	247
514.93	 .087	285	233
515.62	 .085	275	226
516.32	 .082	286	237
517.02	 .087	303	248
517.72	 .076	280	235
518.42	 .078	281	235
519.12	 .072	295	250
519.81	 .066	282	242
520.51	 .062	263	228
521.21	 .061	260	226
521.91	 .059	266	232
522.60	 .06	257	224
523.30	 .055	259	228
524.00	 .046	260	234
524.70	 .05	256	228
525.39	 .047	254	228
526.09	 .045	256	231
526.78	 .044	257	232
527.48	 .042	249	226
528.18	 .036	242	223
528.87	 .033	258	239
529.57	 .034	249	230
530.26	 .03	255	238
530.96	 .031	245	228
531.65	 .02	249	238
532.35	 .028	241	226
533.04	 .023	254	241
533.74	 .01	255	249
534.43	 .015	264	255
535.13	 .015	266	257
535.82	 .008	262	257
536.51	 .005	249	246
537.21	 .007	246	242
537.90	 .007	265	261
538.59	 .002	274	273
539.29	 0	280	280
539.98	 .003	277	275
540.67	-.007	260	264
541.37	-.002	263	264
542.06	-.005	262	265
542.75	-.005	262	265
543.44	-.013	255	263
544.14	-.013	264	272
544.83	-.016	269	279
545.52	-.013	268	276
546.21	-.023	258	272
546.90	-.017	268	279
547.59	-.019	286	299
548.28	-.028	296	316
548.97	-.025	273	289
549.67	-.031	246	264
550.36	-.031	254	273
551.05	-.032	245	264
551.74	-.044	255	282
552.43	-.032	285	307
553.12	-.039	278	304
553.80	-.042	276	304
554.49	-.038	260	284
555.18	-.048	283	316
555.87	-.043	286	316
556.56	-.045	266	295
557.25	-.045	255	283
557.94	-.055	239	271
558.63	-.054	233	264
559.32	-.063	231	267
560.00	-.052	259	292
560.69	-.054	279	316
561.38	-.055	291	330
562.07	-.056	291	331
562.75	-.059	268	307
563.44	-.056	298	339
564.13	-.062	275	317
564.81	-.064	266	308
565.50	-.069	255	299
566.19	-.065	248	288
566.87	-.069	245	287
567.56	-.067	270	315
568.25	-.076	273	325
568.93	-.065	305	354
569.62	-.07	320	376
570.30	-.068	347	406
570.99	-.065	370	430
571.67	-.065	415	482
572.36	-.063	394	455
573.04	-.068	395	462
573.73	-.067	408	476
574.41	-.071	442	520
575.09	-.071	470	554
575.78	-.072	390	460
576.46	-.072	427	504
577.15	-.075	411	488
577.83	-.069	569	667
578.51	-.071	530	624
579.19	-.075	426	506
579.88	-.076	439	523
580.56	-.08	402	483
581.24	-.078	588	703
581.92	-.074	601	713
582.61	-.076	500	596
583.29	-.076	421	502
583.97	-.085	359	437
584.65	-.083	431	522
585.33	-.078	526	630
586.02	-.079	484	580
586.70	-.084	426	517
587.38	-.083	449	544
588.06	-.091	431	532
588.74	-.085	419	509
589.42	-.088	360	441
590.10	-.095	360	448
590.78	-.099	329	413
591.46	-.095	334	416
592.14	-.1	338	427
592.82	-.09	456	561
593.50	-.094	476	591
594.18	-.096	396	494
594.85	-.095	360	448
595.53	-.098	360	451
596.21	-.099	319	401
596.89	-.1	330	420
597.57	-.097	380	475
598.25	-.098	372	466
598.92	-.095	497	619
599.60	-.096	468	584
600.28	-.091	499	616
600.96	-.099	417	524
601.63	-.1	361	460
602.31	-.1	330	423
602.99	-.1	322	411
603.66	-.1	381	485
604.34	-.1	395	498
605.02	-.1	379	488
605.69	-.1	417	532
606.37	-.1	439	556
607.04	-.1	447	563
607.72	-.1	453	577
608.39	-.1	388	495
609.07	-.1	346	447
609.74	-.1	336	433
610.42	-.1	330	429
611.09	-.1	324	424
611.77	-.1	338	434
612.44	-.1	336	434
613.11	-.1	352	456
613.79	-.1	346	451
614.46	-.1	376	488
615.13	-.1	422	542
615.81	-.1	369	480
616.48	-.1	340	438
617.15	-.1	310	406
617.83	-.1	298	393
618.50	-.1	303	401
619.17	-.1	293	386
619.84	-.1	306	409
620.51	-.1	292	390
621.19	-.1	258	346
621.86	-.1	322	425
622.53	-.1	313	413
623.20	-.1	312	415
623.87	-.1	303	402
624.54	-.1	322	425
625.21	-.1	289	389
625.88	-.1	288	388
626.55	-.1	285	384
627.22	-.1	305	413
627.89	-.1	290	392
628.56	-.1	268	362
629.23	-.1	303	402
629.90	-.1	281	382
630.57	-.1	282	379
631.24	-.1	267	360
631.91	-.1	254	347
632.58	-.1	247	342
633.24	-.1	246	338
633.91	-.1	245	330
634.58	-.1	247	342
635.25	-.1	241	333
635.91	-.1	255	344
636.58	-.1	268	369
637.25	-.1	254	350
637.92	-.1	242	340
638.58	-.1	246	343
639.25	-.1	243	332
639.92	-.1	238	326
640.58	-.1	250	343
641.25	-.1	244	330
641.91	-.1	235	326
642.58	-.1	234	324
643.24	-.1	238	332
643.91	-.1	241	334
644.57	-.1	237	329
645.24	-.1	239	329
645.90	-.1	237	323
646.57	-.1	232	323
647.23	-.1	235	322
647.90	-.1	239	332
648.56	-.1	270	365
649.22	-.1	280	381
649.89	-.1	266	367
650.55	-.1	252	347
651.21	-.1	255	351
651.88	-.1	250	344
652.54	-.1	254	349
653.20	-.1	266	364
653.86	-.1	253	351
654.53	-.1	244	338
655.19	-.1	261	353
655.85	-.1	820	1044
656.51	-.1	678	869
657.17	-.1	418	552
657.83	-.1	331	442
658.49	-.1	279	381
659.16	-.1	258	356
659.82	-.1	249	346
660.48	-.1	244	337
661.14	-.1	244	339
661.80	-.1	246	338
662.46	-.1	247	336
663.12	-.1	244	333
663.78	-.1	247	344
664.43	-.1	256	358
665.09	-.1	255	352
665.75	-.1	250	345
666.41	-.1	248	342
667.07	-.1	248	342
667.73	-.1	244	341
668.39	-.1	247	339
669.04	-.1	247	342
669.70	-.1	254	351
670.36	-.1	257	352
671.02	-.1	255	354
671.67	-.1	294	397
672.33	-.1	291	398
672.99	-.1	272	375
673.64	-.1	264	360
674.30	-.1	263	358
674.95	-.1	254	350
675.61	-.1	256	351
676.27	-.1	266	367
676.92	-.1	265	365
677.58	-.1	268	369
678.23	-.1	278	377
678.89	-.1	279	380
679.54	-.1	287	392
680.20	-.1	278	380
680.85	-.1	265	361
681.50	-.1	275	377
682.16	-.1	274	370
682.81	-.1	261	360
683.46	-.1	260	356
684.12	-.1	274	372
684.77	-.1	286	387
685.42	-.1	307	413
686.08	-.1	294	396
686.73	-.1	280	379
687.38	-.1	275	378
688.03	-.1	271	368
688.68	-.1	262	358
689.34	-.1	265	362
689.99	-.1	273	369
690.64	-.1	263	357
691.29	-.1	291	393
691.94	-.1	282	385
692.59	-.1	271	371
693.24	-.1	273	372
693.89	-.1	263	361
694.54	-.1	255	349
695.19	-.1	264	364
695.84	-.1	268	364
696.49	-.1	258	346
697.14	-.1	305	412
697.79	-.1	294	396
698.44	-.1	273	365
699.09	-.1	261	358
699.73	-.1	256	349
700.38	-.1	248	339
701.03	-.1	248	342
701.68	-.1	247	343
702.33	-.1	262	355
702.97	-.1	270	363
703.62	-.1	250	345
704.27	-.1	249	337
704.91	-.1	248	340
705.56	-.1	242	336
706.21	-.1	247	333
706.85	-.1	273	370
707.50	-.1	287	383
708.14	-.1	291	388
708.79	-.1	273	368
709.43	-.1	266	357
710.08	-.1	256	344
710.72	-.1	259	354
711.37	-.1	259	349
712.01	-.1	250	343
712.66	-.1	263	353
713.30	-.1	267	363
713.95	-.1	273	367
714.59	-.1	273	370
715.23	-.1	272	365
715.88	-.1	259	350
716.52	-.1	242	330
717.16	-.1	251	339
717.80	-.1	250	342
718.45	-.1	267	362
719.09	-.1	258	352
719.73	-.1	260	351
720.37	-.1	245	335
721.01	-.1	248	338
721.66	-.1	248	331
722.30	-.1	252	336
722.94	-.1	249	332
723.58	-.1	250	333
724.22	-.1	244	331
724.86	-.1	246	329
725.50	-.1	254	339
726.14	-.1	254	342
726.78	-.1	252	340
727.42	-.1	250	339
728.06	-.1	256	346
728.70	-.1	255	343
729.34	-.1	255	342
729.97	-.1	263	352
730.61	-.1	269	358
731.25	-.1	292	388
731.89	-.1	281	374
732.53	-.1	272	364
733.16	-.1	281	373
733.80	-.1	278	369
734.44	-.1	291	384
735.08	-.1	271	359
735.71	-.1	286	375
736.35	-.1	277	366
736.99	-.1	275	360
737.62	-.1	268	357
738.26	-.1	260	347
738.89	-.1	269	358
739.53	-.1	287	380
740.16	-.1	256	342
740.80	-.1	248	330
741.43	-.1	240	322
742.07	-.1	238	321
742.70	-.1	250	337
743.34	-.1	240	318
743.97	-.1	232	311
744.61	-.1	229	308
745.24	-.1	228	301
745.87	-.1	233	310
746.51	-.1	230	308
747.14	-.1	227	305
747.77	-.1	223	303
748.40	-.1	219	292
749.04	-.1	220	294
749.67	-.1	225	305
750.30	-.1	257	335
750.93	-.1	240	319
751.56	-.1	239	316
752.19	-.1	230	304
752.82	-.1	229	303
753.46	-.1	229	308
754.09	-.1	236	312
754.72	-.1	225	300
755.35	-.1	230	305
755.98	-.1	233	311
756.61	-.1	254	333
757.24	-.1	272	353
757.86	-.1	287	374
758.49	-.1	258	343
759.12	-.1	244	326
759.75	-.1	253	331
760.38	-.1	257	339
761.01	-.1	276	361
761.64	-.1	263	346
762.26	-.1	251	339
762.89	-.1	254	338
763.52	-.1	262	346
764.15	-.1	262	345
764.77	-.1	297	385
765.40	-.1	288	376
766.03	-.1	269	351
766.65	-.1	248	331
767.28	-.1	243	321
767.90	-.1	252	336
768.53	-.1	271	356
769.15	-.1	272	360
769.78	-.1	250	328
770.40	-.1	250	329
771.03	-.1	254	337
771.65	-.1	255	337
772.28	-.1	245	327
772.90	-.1	242	321
773.53	-.1	240	318
774.15	-.1	234	312
774.77	-.1	229	307
775.40	-.1	231	306
776.02	-.1	227	297
776.64	-.1	222	295
777.26	-.1	225	299
777.89	-.1	223	295
778.51	-.1	227	300
779.13	-.1	228	301
779.75	-.1	226	294
780.37	-.1	217	288
780.99	-.1	229	300
781.62	-.1	236	312
782.24	-.1	226	296
782.86	-.1	226	292
783.48	-.1	220	288
784.10	-.1	210	279
784.72	-.1	206	270
785.34	-.1	212	278
785.96	-.1	216	284
786.58	-.1	209	281
787.19	-.1	204	266
787.81	-.1	209	271
788.43	-.1	216	282
789.05	-.1	220	284
789.67	-.1	202	264
790.29	-.1	197	259
790.90	-.1	195	255
791.52	-.1	202	264
792.14	-.1	193	256
792.75	-.1	191	249
793.37	-.1	196	252
793.99	-.1	219	283
794.60	-.1	216	284
795.22	-.1	203	265
795.84	-.1	188	244
796.45	-.1	179	236
797.07	-.1	176	228
797.68	-.1	183	233
798.30	-.1	175	228
798.91	-.1	170	229
799.53	-.1	173	223
800.14	-.1	168	220
800.75	-.1	169	218
801.37	-.1	166	217
801.98	-.1	165	214
802.60	-.1	164	216
803.21	-.1	164	214
803.82	-.1	160	209
804.43	-.1	158	205
805.05	-.1	157	206
805.66	-.1	163	213
806.27	-.1	176	228
806.88	-.1	169	219
807.49	-.1	162	212
808.11	-.1	160	209
808.72	-.1	157	207
809.33	-.1	152	197
809.94	-.1	153	198
810.55	-.1	151	198
811.16	-.1	154	201
811.77	-.1	148	195
812.38	-.1	143	192
812.99	-.1	144	188
813.60	-.1	152	200
814.21	-.1	153	201
814.81	-.1	146	186
815.42	-.1	140	180
816.03	-.1	139	183
816.64	-.1	141	181
817.25	-.1	144	184
817.86	-.1	139	184
818.46	-.1	133	172
819.07	-.1	134	174
819.68	-.1	131	172
820.28	-.1	138	179
820.89	-.1	143	187
821.50	-.1	134	171
822.10	-.1	130	171
822.71	-.1	129	170
823.31	-.1	132	171
823.92	-.1	127	163
824.52	-.1	127	165
825.13	-.1	127	161
825.73	-.1	128	166
826.34	-.1	126	164
826.94	-.1	135	173
827.55	-.099	140	176
828.15	-.1	124	159
828.75	-.1	121	157
829.36	-.1	118	157
829.96	-.1	117	154
830.56	-.1	112	148
831.17	-.1	112	146
831.77	-.1	107	139
832.37	-.1	114	144
832.97	-.1	116	147
833.57	-.1	112	144
834.18	-.092	114	141
834.78	-.1	104	135
835.38	-.1	109	142
835.98	-.1	105	135
836.58	-.1	101	134
837.18	-.1	99	128
837.78	-.1	102	131
838.38	-.1	102	131
838.98	-.1	97	125
839.58	-.1	98	125
840.18	-.1	99	131
840.78	-.1	100	131
841.37	-.1	94	123
841.97	-.1	96	121
842.57	-.1	93	122
843.17	-.1	92	120
843.77	-.1	92	122
844.36	-.1	92	118
844.96	-.1	89	113
845.56	-.1	87	114
846.15	-.1	89	114
846.75	-.1	87	110
847.35	-.1	85	111
847.94	-.092	89	110
848.54	-.086	87	106
849.13	-.1	82	108
849.73	-.1	81	105
850.33	-.1	79	102
850.92	-.1	78	102
851.51	-.1	79	100
852.11	-.1	79	100
852.70	-.099	78	98
853.30	-.1	79	100
853.89	-.1	75	97
854.48	-.096	77	96
855.08	-.098	75	94
855.67	-.1	72	93
856.26	-.092	76	94
856.86	-.1	73	94
857.45	-.1	72	92
858.04	-.086	73	89
858.63	-.087	72	88
859.22	-.1	64	86
859.81	-.1	66	86
860.41	-.1	66	85
861.00	-.1	65	84
861.59	-.088	67	82
862.18	-.091	64	79
862.77	-.1	60	77
863.36	-.1	63	80
863.95	-.1	61	80
864.54	-.098	59	74
865.13	-.1	62	79
865.71	-.09	61	75
866.30	-.1	59	77
866.89	-.09	61	75
867.48	-.1	56	71
868.07	-.091	56	69
868.66	-.097	56	70
869.24	-.1	52	67
869.83	-.097	52	65
870.42	-.1	51	66
871.00	-.1	52	66
871.59	-.099	51	64
872.18	-.1	49	62
872.76	-.099	47	59
873.35	-.1	49	62
873.93	-.091	47	58
874.52	-.1	43	56
875.10	-.1	44	56
875.69	-.1	46	58
876.27	-.1	42	54
876.86	-.1	42	53
877.44	-.1	44	56
877.44	-.1	44	56
877.44	-.1	44	56
